#******** SO2 Absorption Cross Sections at 293K ******************

#Version 1.0
#Date: May 2000

#K. Bogumil, J. Orphal, and J. P. Burrows
#University of Bremen - Institute of Environmental Physics
#P. O. Box 33 04 40
#D-28334 Bremen, Germany
#e-mail: Konstanze.Bogumil@iup.physik.uni-bremen.de

#1. column title:	wavelength (vacuum)
#1. column unit:		nm
#2. column title:	absorption cross-section 
#2. column unit:		cm2/molec

#Wavelength range:	239 - 395 nm
#Spectral Resolution:	0.22 nm below 312.5 nm, 0.21 nm above 312.5 nm (FWHM)
#Number of data points in file:	1402

#Experimental:

#Light source:   Xenon lamp
#Cell:	        Multiple reflection quartz cell (White optics)
#	        optical pathlength 985 cm
#Temperature:    293K
#Gas mixture:    SO2, N2
#Condition:      Flow measurement
#Total pressure: 100 mbar
#Spectrometer:   SCIAMACHY PFM Satellite Spectrometer (Eight channel grating spectrometer)

#Note: Spectral Regions are cut and concatenated at 252.7 nm and 312.5 nm.
#      The data are scaled to the absorption cross section measured by Vandaele et al. 
#      J. Geophys. Res. 99, 25599-25605 (1994)

   238.9581  3.754169E-20
   239.0867  3.724393E-20
   239.2152  3.638742E-20
   239.3437  3.685889E-20
   239.4721  3.855661E-20
   239.6005  4.108332E-20
   239.7288  4.281204E-20
   239.8570  4.332424E-20
   239.9852  4.456555E-20
   240.1133  4.841552E-20
   240.2414  5.083203E-20
   240.3694  4.963641E-20
   240.4973  4.661270E-20
   240.6252  4.444887E-20
   240.7530  4.322461E-20
   240.8808  4.317268E-20
   241.0084  4.489730E-20
   241.1361  4.650224E-20
   241.2636  4.647385E-20
   241.3911  4.612130E-20
   241.5185  4.700522E-20
   241.6459  4.813732E-20
   241.7732  4.891613E-20
   241.9005  4.885935E-20
   242.0277  4.832524E-20
   242.1548  4.743771E-20
   242.2818  4.705528E-20
   242.4088  4.840867E-20
   242.5358  5.071908E-20
   242.6626  5.143911E-20
   242.7894  5.095867E-20
   242.9162  5.012507E-20
   243.0429  4.820419E-20
   243.1695  4.599926E-20
   243.2960  4.541833E-20
   243.4225  4.798602E-20
   243.5489  5.217060E-20
   243.6753  5.547475E-20
   243.8016  5.743909E-20
   243.9278  5.858676E-20
   244.0540  5.912996E-20
   244.1801  5.990914E-20
   244.3062  5.996904E-20
   244.4322  6.037600E-20
   244.5581  6.148470E-20
   244.6839  6.278255E-20
   244.8097  6.518896E-20
   244.9355  6.778106E-20
   245.0611  6.758206E-20
   245.1867  6.757147E-20
   245.3123  7.453668E-20
   245.4377  8.318230E-20
   245.5632  8.369225E-20
   245.6885  7.706913E-20
   245.8138  6.817445E-20
   245.9390  6.175729E-20
   246.0642  6.036965E-20
   246.1893  6.353981E-20
   246.3143  7.061200E-20
   246.4393  7.533442E-20
   246.5642  7.411104E-20
   246.6890  7.208456E-20
   246.8138  7.296923E-20
   246.9385  7.677411E-20
   247.0632  8.004465E-20
   247.1878  7.903346E-20
   247.3123  7.590402E-20
   247.4367  7.510454E-20
   247.5611  7.710088E-20
   247.6855  8.188707E-20
   247.8098  8.757958E-20
   247.9340  9.051077E-20
   248.0581  8.942238E-20
   248.1822  8.623441E-20
   248.3062  8.581562E-20
   248.4302  8.780822E-20
   248.5541  8.860745E-20
   248.6779  8.617339E-20
   248.8017  8.372202E-20
   248.9254  8.329588E-20
   249.0490  8.653615E-20
   249.1726  9.187375E-20
   249.2961  9.151548E-20
   249.4196  9.099656E-20
   249.5430  1.019740E-19
   249.6663  1.167476E-19
   249.7896  1.199226E-19
   249.9128  1.121649E-19
   250.0359  1.047790E-19
   250.1590  1.039864E-19
   250.2820  1.110052E-19
   250.4050  1.168778E-19
   250.5279  1.132991E-19
   250.6507  1.068995E-19
   250.7735  1.044042E-19
   250.8962  1.054780E-19
   251.0189  1.127756E-19
   251.1414  1.282099E-19
   251.2640  1.397090E-19
   251.3864  1.373939E-19
   251.5088  1.291476E-19
   251.6312  1.238676E-19
   251.7535  1.224154E-19
   251.8757  1.212379E-19
   251.9978  1.186369E-19
   252.1199  1.187377E-19
   252.2420  1.232294E-19
   252.3639  1.297764E-19
   252.4858  1.312633E-19
   252.6077  1.285648E-19
   252.7295  1.249559E-19
   252.8512  1.206825E-19
   252.9729  1.218301E-19
   253.0945  1.291413E-19
   253.2160  1.350802E-19
   253.3375  1.386828E-19
   253.4590  1.433639E-19
   253.5803  1.488432E-19
   253.7016  1.557708E-19
   253.8229  1.597770E-19
   253.9441  1.585018E-19
   254.0652  1.551258E-19
   254.1863  1.536875E-19
   254.3073  1.538967E-19
   254.4282  1.558493E-19
   254.5491  1.606860E-19
   254.6699  1.629176E-19
   254.7907  1.600098E-19
   254.9114  1.602427E-19
   255.0321  1.616785E-19
   255.1527  1.628641E-19
   255.2732  1.755375E-19
   255.3937  1.974784E-19
   255.5141  2.099003E-19
   255.6345  2.092502E-19
   255.7548  2.093885E-19
   255.8750  2.103797E-19
   255.9952  2.023314E-19
   256.1153  1.881038E-19
   256.2354  1.744690E-19
   256.3554  1.657594E-19
   256.4754  1.603212E-19
   256.5953  1.561145E-19
   256.7151  1.591145E-19
   256.8349  1.773942E-19
   256.9546  1.908871E-19
   257.0743  1.856008E-19
   257.1939  1.840553E-19
   257.3135  2.103523E-19
   257.4330  2.423553E-19
   257.5524  2.488147E-19
   257.6718  2.377813E-19
   257.7911  2.169001E-19
   257.9104  1.976789E-19
   258.0296  1.955918E-19
   258.1488  2.170633E-19
   258.2679  2.414251E-19
   258.3869  2.482269E-19
   258.5059  2.436292E-19
   258.6249  2.330006E-19
   258.7438  2.192886E-19
   258.8626  2.089912E-19
   258.9814  2.139836E-19
   259.1001  2.314751E-19
   259.2188  2.387850E-19
   259.3374  2.362060E-19
   259.4559  2.364837E-19
   259.5745  2.431025E-19
   259.6929  2.492356E-19
   259.8113  2.572155E-19
   259.9296  2.635416E-19
   260.0479  2.592316E-19
   260.1662  2.536029E-19
   260.2844  2.574396E-19
   260.4025  2.594757E-19
   260.5206  2.587982E-19
   260.6386  2.717431E-19
   260.7566  2.849707E-19
   260.8745  2.796222E-19
   260.9924  2.715339E-19
   261.1102  2.809160E-19
   261.2279  3.076090E-19
   261.3457  3.326943E-19
   261.4633  3.381002E-19
   261.5809  3.233758E-19
   261.6985  3.049105E-19
   261.8160  3.001136E-19
   261.9334  3.147284E-19
   262.0509  3.343195E-19
   262.1682  3.393056E-19
   262.2855  3.332560E-19
   262.4028  3.211417E-19
   262.5200  3.060624E-19
   262.6371  3.017113E-19
   262.7542  3.082479E-19
   262.8713  3.108829E-19
   262.9883  3.035058E-19
   263.1052  3.042729E-19
   263.2221  3.086924E-19
   263.3390  2.978683E-19
   263.4558  2.759448E-19
   263.5726  2.717805E-19
   263.6893  3.056004E-19
   263.8059  3.434575E-19
   263.9226  3.386768E-19
   264.0391  3.207818E-19
   264.1556  3.225476E-19
   264.2721  3.450888E-19
   264.3885  3.669862E-19
   264.5049  3.780071E-19
   264.6212  4.022294E-19
   264.7375  4.272002E-19
   264.8538  4.162590E-19
   264.9699  3.911188E-19
   265.0861  3.758091E-19
   265.2022  3.795973E-19
   265.3182  4.073688E-19
   265.4342  4.207221E-19
   265.5502  3.978958E-19
   265.6661  3.636849E-19
   265.7820  3.458597E-19
   265.8978  3.646550E-19
   266.0136  4.090748E-19
   266.1293  4.367865E-19
   266.2450  4.404116E-19
   266.3606  4.442371E-19
   266.4762  4.405548E-19
   266.5918  4.204083E-19
   266.7073  4.043041E-19
   266.8228  4.209438E-19
   266.9382  4.700323E-19
   267.0536  4.860456E-19
   267.1689  4.535756E-19
   267.2842  4.229363E-19
   267.3994  4.063489E-19
   267.5146  4.004362E-19
   267.6298  4.276622E-19
   267.7449  4.603563E-19
   267.8600  4.533452E-19
   267.9750  4.221903E-19
   268.0900  3.977090E-19
   268.2050  4.015532E-19
   268.3199  4.514175E-19
   268.4348  5.186612E-19
   268.5496  5.748579E-19
   268.6644  5.964414E-19
   268.7792  5.635169E-19
   268.8939  5.043764E-19
   269.0085  4.594547E-19
   269.1232  4.464749E-19
   269.2378  4.659863E-19
   269.3523  5.000104E-19
   269.4668  4.976916E-19
   269.5813  4.602479E-19
   269.6957  4.391575E-19
   269.8101  4.521859E-19
   269.9245  4.741928E-19
   270.0388  5.008161E-19
   270.1531  5.327555E-19
   270.2673  5.412074E-19
   270.3815  5.188032E-19
   270.4957  4.964189E-19
   270.6098  4.994263E-19
   270.7239  5.036180E-19
   270.8379  4.842112E-19
   270.9519  4.700298E-19
   271.0659  4.926432E-19
   271.1799  5.311018E-19
   271.2938  5.497738E-19
   271.4076  5.485235E-19
   271.5215  5.564399E-19
   271.6353  5.704694E-19
   271.7490  5.811516E-19
   271.8628  5.928537E-19
   271.9764  5.965224E-19
   272.0901  5.923008E-19
   272.2037  5.923369E-19
   272.3173  6.067525E-19
   272.4309  6.070862E-19
   272.5444  5.934938E-19
   272.6579  5.976631E-19
   272.7713  6.137386E-19
   272.8847  6.117013E-19
   272.9981  6.022221E-19
   273.1115  5.940031E-19
   273.2248  5.987552E-19
   273.3381  6.391938E-19
   273.4513  7.015298E-19
   273.5645  7.260024E-19
   273.6777  7.033255E-19
   273.7909  6.803971E-19
   273.9040  6.594947E-19
   274.0171  6.155269E-19
   274.1301  5.596714E-19
   274.2431  5.247520E-19
   274.3561  5.254506E-19
   274.4691  5.573876E-19
   274.5820  6.056081E-19
   274.6949  6.501661E-19
   274.8078  6.728767E-19
   274.9207  6.723561E-19
   275.0335  6.639678E-19
   275.1462  6.703325E-19
   275.2590  6.733835E-19
   275.3717  6.661546E-19
   275.4844  6.654684E-19
   275.5971  6.476357E-19
   275.7097  6.259289E-19
   275.8223  6.318465E-19
   275.9349  6.271368E-19
   276.0474  6.030901E-19
   276.1600  5.934465E-19
   276.2725  6.109616E-19
   276.3849  6.644746E-19
   276.4974  7.224708E-19
   276.6098  7.360234E-19
   276.7222  7.175344E-19
   276.8345  6.899522E-19
   276.9468  6.628844E-19
   277.0591  6.682728E-19
   277.1714  7.179055E-19
   277.2837  7.404330E-19
   277.3959  7.034824E-19
   277.5081  6.626602E-19
   277.6203  6.459545E-19
   277.7324  6.767545E-19
   277.8445  7.416783E-19
   277.9566  7.901952E-19
   278.0687  8.094089E-19
   278.1807  8.012522E-19
   278.2928  7.619891E-19
   278.4048  7.057327E-19
   278.5167  6.556355E-19
   278.6287  6.145755E-19
   278.7406  6.150288E-19
   278.8525  6.906982E-19
   278.9644  7.974963E-19
   279.0762  8.506570E-19
   279.1881  8.104637E-19
   279.2999  7.294332E-19
   279.4117  6.575670E-19
   279.5234  6.194683E-19
   279.6352  6.732540E-19
   279.7469  8.203924E-19
   279.8586  9.240064E-19
   279.9703  9.143254E-19
   280.0819  8.605733E-19
   280.1935  8.285666E-19
   280.3052  8.046581E-19
   280.4167  7.672455E-19
   280.5283  7.419971E-19
   280.6399  7.310521E-19
   280.7514  7.149105E-19
   280.8629  6.789737E-19
   280.9744  6.601896E-19
   281.0858  6.896372E-19
   281.1973  7.325228E-19
   281.3087  7.603117E-19
   281.4201  8.098734E-19
   281.5315  8.714273E-19
   281.6429  8.901379E-19
   281.7542  8.883285E-19
   281.8656  8.965911E-19
   281.9769  8.764895E-19
   282.0882  8.403347E-19
   282.1994  7.980642E-19
   282.3107  7.415649E-19
   282.4219  6.887891E-19
   282.5331  6.679789E-19
   282.6443  6.613938E-19
   282.7555  6.416632E-19
   282.8667  6.138358E-19
   282.9778  6.143463E-19
   283.0890  7.136391E-19
   283.2001  8.625371E-19
   283.3112  9.285505E-19
   283.4223  9.064103E-19
   283.5333  8.706739E-19
   283.6444  8.383883E-19
   283.7554  8.005498E-19
   283.8664  7.744882E-19
   283.9774  7.411926E-19
   284.0884  6.989445E-19
   284.1994  6.779700E-19
   284.3104  6.913383E-19
   284.4213  7.239278E-19
   284.5322  7.299550E-19
   284.6431  7.258219E-19
   284.7540  7.561325E-19
   284.8649  8.038025E-19
   284.9758  8.267659E-19
   285.0866  8.615944E-19
   285.1975  9.492374E-19
   285.3083  1.016611E-18
   285.4191  1.001006E-18
   285.5299  9.353909E-19
   285.6407  8.693103E-19
   285.7515  8.187661E-19
   285.8622  7.898627E-19
   285.9730  7.520267E-19
   286.0837  7.040291E-19
   286.1944  6.724259E-19
   286.3051  6.447678E-19
   286.4158  6.329947E-19
   286.5265  6.840782E-19
   286.6372  8.061674E-19
   286.7478  9.313325E-19
   286.8585  9.911791E-19
   286.9691  9.906337E-19
   287.0797  9.717126E-19
   287.1903  9.360870E-19
   287.3009  8.787484E-19
   287.4115  8.486196E-19
   287.5221  8.361405E-19
   287.6327  8.049582E-19
   287.7432  7.664822E-19
   287.8538  7.405052E-19
   287.9643  7.156689E-19
   288.0748  6.961227E-19
   288.1853  6.826087E-19
   288.2958  6.628832E-19
   288.4063  6.708468E-19
   288.5168  7.167324E-19
   288.6273  7.986333E-19
   288.7377  9.169928E-19
   288.8482  1.003160E-18
   288.9586  9.992586E-19
   289.0691  9.358579E-19
   289.1795  8.678060E-19
   289.2899  7.836050E-19
   289.4003  6.994078E-19
   289.5107  6.576641E-19
   289.6211  6.537912E-19
   289.7315  6.796150E-19
   289.8419  7.010055E-19
   289.9522  7.212205E-19
   290.0626  7.754421E-19
   290.1729  8.311568E-19
   290.2833  8.227311E-19
   290.3936  7.973282E-19
   290.5039  8.121959E-19
   290.6142  8.749951E-19
   290.7245  9.627315E-19
   290.8348  9.740612E-19
   290.9451  8.882065E-19
   291.0554  8.044202E-19
   291.1657  7.479085E-19
   291.2760  6.923146E-19
   291.3862  6.387218E-19
   291.4965  5.935710E-19
   291.6067  5.760060E-19
   291.7170  6.126154E-19
   291.8272  6.933656E-19
   291.9374  7.574550E-19
   292.0476  7.787919E-19
   292.1579  8.293997E-19
   292.2681  9.084825E-19
   292.3783  9.449013E-19
   292.4885  9.501676E-19
   292.5987  9.287572E-19
   292.7088  8.749814E-19
   292.8190  8.152033E-19
   292.9292  7.491115E-19
   293.0393  6.851279E-19
   293.1495  6.263959E-19
   293.2597  5.703449E-19
   293.3698  5.308328E-19
   293.4800  5.246972E-19
   293.5901  5.498834E-19
   293.7002  6.090750E-19
   293.8103  7.453706E-19
   293.9205  8.869612E-19
   294.0306  9.361144E-19
   294.1407  9.132084E-19
   294.2508  8.793960E-19
   294.3609  8.893808E-19
   294.4710  9.242940E-19
   294.5811  9.340858E-19
   294.6912  8.771021E-19
   294.8013  7.684809E-19
   294.9113  6.722017E-19
   295.0214  6.032345E-19
   295.1315  5.480167E-19
   295.2415  4.960802E-19
   295.3516  4.569417E-19
   295.4616  4.444613E-19
   295.5717  4.580687E-19
   295.6817  5.071310E-19
   295.7918  6.105494E-19
   295.9018  7.533779E-19
   296.0118  8.830248E-19
   296.1219  9.681435E-19
   296.2319  1.018868E-18
   296.3419  9.947743E-19
   296.4519  8.930582E-19
   296.5619  7.729054E-19
   296.6719  6.702068E-19
   296.7819  5.971151E-19
   296.8919  5.544013E-19
   297.0019  5.210111E-19
   297.1119  4.634073E-19
   297.2219  4.000464E-19
   297.3319  3.554485E-19
   297.4419  3.322572E-19
   297.5518  3.435770E-19
   297.6618  3.968223E-19
   297.7718  4.992669E-19
   297.8817  6.849175E-19
   297.9917  8.879375E-19
   298.1016  9.779677E-19
   298.2116  9.586681E-19
   298.3215  9.124512E-19
   298.4315  8.691409E-19
   298.5414  8.008412E-19
   298.6513  7.037527E-19
   298.7613  6.067151E-19
   298.8712  5.256125E-19
   298.9811  4.609528E-19
   299.0910  4.073526E-19
   299.2010  3.623362E-19
   299.3109  3.240408E-19
   299.4208  3.026303E-19
   299.5307  3.002779E-19
   299.6406  3.116899E-19
   299.7505  3.425297E-19
   299.8604  4.489593E-19
   299.9703  6.935524E-19
   300.0801  9.927058E-19
   300.1900  1.076772E-18
   300.2999  9.707774E-19
   300.4098  8.467529E-19
   300.5196  7.330209E-19
   300.6295  6.283859E-19
   300.7393  5.377816E-19
   300.8492  4.630075E-19
   300.9591  4.077448E-19
   301.0689  3.618319E-19
   301.1787  3.188591E-19
   301.2886  2.804851E-19
   301.3984  2.517075E-19
   301.5082  2.347938E-19
   301.6181  2.409556E-19
   301.7279  2.888909E-19
   301.8377  3.846894E-19
   301.9475  5.462533E-19
   302.0573  7.375015E-19
   302.1671  8.606629E-19
   302.2769  8.788418E-19
   302.3867  8.260461E-19
   302.4965  7.416185E-19
   302.6063  6.373856E-19
   302.7160  5.377641E-19
   302.8258  4.570214E-19
   302.9356  3.928336E-19
   303.0453  3.377577E-19
   303.1551  2.922072E-19
   303.2648  2.582665E-19
   303.3746  2.343231E-19
   303.4843  2.206584E-19
   303.5940  2.199001E-19
   303.7038  2.300978E-19
   303.8135  2.495071E-19
   303.9232  2.901748E-19
   304.0329  3.862547E-19
   304.1426  5.551734E-19
   304.2523  7.520852E-19
   304.3620  7.823311E-19
   304.4717  6.993617E-19
   304.5814  6.157348E-19
   304.6910  5.284854E-19
   304.8007  4.413655E-19
   304.9104  3.718267E-19
   305.0200  3.203210E-19
   305.1296  2.791452E-19
   305.2393  2.434076E-19
   305.3489  2.130497E-19
   305.4585  1.893055E-19
   305.5681  1.770568E-19
   305.6777  1.789708E-19
   305.7873  1.893989E-19
   305.8969  2.163783E-19
   306.0065  2.744031E-19
   306.1161  3.485570E-19
   306.2257  4.244754E-19
   306.3352  5.057288E-19
   306.4448  5.887467E-19
   306.5543  6.281966E-19
   306.6638  5.801342E-19
   306.7734  4.859073E-19
   306.8829  4.004312E-19
   306.9924  3.380877E-19
   307.1019  2.946753E-19
   307.2114  2.649886E-19
   307.3208  2.340006E-19
   307.4303  2.071432E-19
   307.5398  1.923117E-19
   307.6492  1.879357E-19
   307.7586  1.886169E-19
   307.8681  1.879145E-19
   307.9775  1.859905E-19
   308.0869  1.981160E-19
   308.1963  2.360703E-19
   308.3056  2.641916E-19
   308.4150  3.087223E-19
   308.5244  4.032954E-19
   308.6337  4.951051E-19
   308.7431  5.042643E-19
   308.8524  4.480129E-19
   308.9617  3.815051E-19
   309.0710  3.180720E-19
   309.1803  2.681056E-19
   309.2895  2.307753E-19
   309.3988  2.003563E-19
   309.5081  1.765026E-19
   309.6173  1.649412E-19
   309.7265  1.665688E-19
   309.8357  1.699971E-19
   309.9449  1.691491E-19
   310.0541  1.716895E-19
   310.1632  1.838511E-19
   310.2724  1.947164E-19
   310.3815  1.985606E-19
   310.4906  2.126424E-19
   310.5997  2.619314E-19
   310.7088  3.197295E-19
   310.8179  3.361426E-19
   310.9270  2.993402E-19
   311.0360  2.659662E-19
   311.1450  2.495556E-19
   311.2540  2.293618E-19
   311.3630  2.072764E-19
   311.4720  1.797055E-19
   311.5809  1.521881E-19
   311.6899  1.331139E-19
   311.7988  1.231006E-19
   311.9077  1.214195E-19
   312.0166  1.285237E-19
   312.1254  1.347327E-19
   312.2343  1.330279E-19
   312.3431  1.299446E-19
   312.4519  1.313866E-19
   312.5180  1.370403E-19
   312.6326  1.471845E-19
   312.7472  1.533923E-19
   312.8619  1.694131E-19
   312.9764  2.014136E-19
   313.0910  2.309347E-19
   313.2055  2.332136E-19
   313.3201  2.097397E-19
   313.4346  1.802460E-19
   313.5491  1.513849E-19
   313.6635  1.293294E-19
   313.7780  1.196649E-19
   313.8924  1.166605E-19
   314.0068  1.073111E-19
   314.1211  9.489161E-20
   314.2355  8.635682E-20
   314.3498  8.440880E-20
   314.4641  8.999160E-20
   314.5784  9.997654E-20
   314.6927  1.080350E-19
   314.8069  1.123071E-19
   314.9212  1.102988E-19
   315.0354  1.078785E-19
   315.1496  1.157514E-19
   315.2637  1.299234E-19
   315.3779  1.327041E-19
   315.4920  1.251601E-19
   315.6061  1.227431E-19
   315.7202  1.279521E-19
   315.8342  1.253270E-19
   315.9482  1.100270E-19
   316.0622  9.357670E-20
   316.1762  8.190936E-20
   316.2902  7.455262E-20
   316.4041  7.110775E-20
   316.5181  7.226638E-20
   316.6320  7.867706E-20
   316.7458  8.416385E-20
   316.8597  8.493021E-20
   316.9735  8.440407E-20
   317.0873  8.616492E-20
   317.2011  9.037067E-20
   317.3149  9.004490E-20
   317.4286  8.371355E-20
   317.5424  7.716153E-20
   317.6561  7.450256E-20
   317.7697  7.475075E-20
   317.8834  7.638595E-20
   317.9970  8.194921E-20
   318.1106  8.843535E-20
   318.2242  8.546930E-20
   318.3378  7.652481E-20
   318.4513  6.819338E-20
   318.5649  5.967241E-20
   318.6784  5.114871E-20
   318.7918  4.432023E-20
   318.9053  4.046627E-20
   319.0187  4.031659E-20
   319.1321  4.151257E-20
   319.2455  4.253546E-20
   319.3589  4.537450E-20
   319.4722  5.081260E-20
   319.5855  5.627311E-20
   319.6988  5.786050E-20
   319.8121  5.754382E-20
   319.9253  5.492308E-20
   320.0386  4.939482E-20
   320.1518  4.360841E-20
   320.2650  3.853705E-20
   320.3781  3.553650E-20
   320.4912  3.439855E-20
   320.6044  3.362285E-20
   320.7174  3.363381E-20
   320.8305  3.490725E-20
   320.9436  3.782561E-20
   321.0566  4.033128E-20
   321.1696  3.766696E-20
   321.2825  3.237668E-20
   321.3955  2.805736E-20
   321.5084  2.456877E-20
   321.6213  2.211715E-20
   321.7342  2.106064E-20
   321.8471  2.145116E-20
   321.9599  2.270842E-20
   322.0727  2.412383E-20
   322.1855  2.539353E-20
   322.2983  2.509429E-20
   322.4110  2.432893E-20
   322.5237  2.537075E-20
   322.6364  2.788999E-20
   322.7491  2.744118E-20
   322.8618  2.335909E-20
   322.9744  1.917625E-20
   323.0870  1.578106E-20
   323.1996  1.344202E-20
   323.3121  1.207748E-20
   323.4247  1.136285E-20
   323.5372  1.101534E-20
   323.6497  1.095616E-20
   323.7621  1.118979E-20
   323.8746  1.241222E-20
   323.9870  1.400489E-20
   324.0994  1.514011E-20
   324.2118  1.528718E-20
   324.3241  1.412843E-20
   324.4365  1.242573E-20
   324.5488  1.125063E-20
   324.6610  1.055919E-20
   324.7733  1.021997E-20
   324.8855  1.025867E-20
   324.9978  1.048053E-20
   325.1099  1.109230E-20
   325.2221  1.176253E-20
   325.3343  1.099560E-20
   325.4464  9.622383E-21
   325.5585  8.727299E-21
   325.6705  8.487653E-21
   325.7826  8.698408E-21
   325.8946  8.910769E-21
   326.0066  8.452262E-21
   326.1186  7.422225E-21
   326.2306  6.518386E-21
   326.3425  5.811641E-21
   326.4544  5.233734E-21
   326.5663  4.766373E-21
   326.6782  4.417390E-21
   326.7900  4.171581E-21
   326.9018  4.154358E-21
   327.0136  4.411899E-21
   327.1254  4.975310E-21
   327.2372  5.646514E-21
   327.3489  6.115967E-21
   327.4606  5.756536E-21
   327.5723  5.094199E-21
   327.6840  4.539816E-21
   327.7956  4.050986E-21
   327.9072  3.762873E-21
   328.0188  3.712127E-21
   328.1304  3.869172E-21
   328.2419  3.909906E-21
   328.3534  3.791552E-21
   328.4649  3.587933E-21
   328.5764  3.369495E-21
   328.6879  3.229598E-21
   328.7993  3.127073E-21
   328.9107  3.095106E-21
   329.0221  3.224032E-21
   329.1335  3.570126E-21
   329.2448  3.923666E-21
   329.3561  3.874452E-21
   329.4674  3.451025E-21
   329.5787  2.926741E-21
   329.6900  2.516901E-21
   329.8012  2.264715E-21
   329.9124  2.047174E-21
   330.0236  1.982194E-21
   330.1348  2.074221E-21
   330.2459  2.083798E-21
   330.3570  2.045679E-21
   330.4681  2.139662E-21
   330.5792  2.365572E-21
   330.6902  2.515244E-21
   330.8013  2.328250E-21
   330.9123  2.013775E-21
   331.0232  1.718252E-21
   331.1342  1.524895E-21
   331.2451  1.535019E-21
   331.3561  1.540374E-21
   331.4670  1.404175E-21
   331.5778  1.333417E-21
   331.6887  1.236330E-21
   331.7995  1.264988E-21
   331.9103  1.198096E-21
   332.0211  1.180827E-21
   332.1319  1.193390E-21
   332.2426  1.186529E-21
   332.3533  1.280866E-21
   332.4640  1.367402E-21
   332.5747  1.326469E-21
   332.6853  1.384338E-21
   332.7960  1.468508E-21
   332.9066  1.283381E-21
   333.0172  1.102091E-21
   333.1277  9.962923E-22
   333.2383  9.945489E-22
   333.3488  9.626630E-22
   333.4593  9.178035E-22
   333.5698  8.598186E-22
   333.6802  8.094375E-22
   333.7907  8.467056E-22
   333.9011  9.170314E-22
   334.0115  9.997144E-22
   334.1219  9.961815E-22
   334.2322  8.798007E-22
   334.3425  7.676029E-22
   334.4529  7.239975E-22
   334.5631  6.356721E-22
   334.6734  6.348901E-22
   334.7836  6.268330E-22
   334.8939  5.567076E-22
   335.0041  5.939409E-22
   335.1143  5.925374E-22
   335.2244  5.883034E-22
   335.3346  5.456157E-22
   335.4447  4.644932E-22
   335.5548  4.128107E-22
   335.6648  4.167284E-22
   335.7749  4.836459E-22
   335.8849  5.602082E-22
   335.9949  5.675455E-22
   336.1049  5.202066E-22
   336.2149  4.345948E-22
   336.3249  4.396644E-22
   336.4348  4.665130E-22
   336.5447  4.837679E-22
   336.6546  4.610437E-22
   336.7645  4.155093E-22
   336.8743  4.142889E-22
   336.9841  3.495320E-22
   337.0940  3.384140E-22
   337.2037  3.628767E-22
   337.3135  3.227706E-22
   337.4233  3.085555E-22
   337.5330  3.480252E-22
   337.6427  3.543389E-22
   337.7524  3.353194E-22
   337.8620  3.013925E-22
   337.9717  2.680359E-22
   338.0813  1.842695E-22
   338.1909  2.083312E-22
   338.3005  2.243458E-22
   338.4101  2.367402E-22
   338.5196  2.180010E-22
   338.6292  2.399531E-22
   338.7387  2.334564E-22
   338.8482  2.072852E-22
   338.9576  1.886405E-22
   339.0671  1.662687E-22
   339.1765  1.745599E-22
   339.2859  1.668814E-22
   339.3953  2.335822E-22
   339.5047  2.335871E-22
   339.6140  2.471223E-22
   339.7234  1.879432E-22
   339.8327  1.863293E-22
   339.9420  1.953328E-22
   340.0512  1.897140E-22
   340.1605  1.993389E-22
   340.2697  1.548020E-22
   340.3790  1.952718E-22
   340.4882  1.714666E-22
   340.5973  1.178901E-22
   340.7065  8.615608E-23
   340.8156  1.083548E-22
   340.9248  8.905265E-23
   341.0339  1.903192E-23
   341.1430  1.906803E-23
   341.2520  3.819211E-23
   341.3611  2.229710E-23
   341.4701  5.484799E-23
   341.5791  1.233133E-22
   341.6881  7.542284E-23
   341.7971  8.728432E-23
   341.9061  1.362072E-22
   342.0150  1.230107E-22
   342.1239  1.141081E-22
   342.2328  1.058630E-22
   342.3417  1.302111E-22
   342.4506  1.443788E-22
   342.5594  7.391727E-23
   342.6683  4.384203E-23
   342.7771 -1.770817E-24
   342.8859  3.413865E-23
   342.9947  4.013602E-23
   343.1034  6.242813E-23
   343.2122  8.105907E-23
   343.3209  1.919630E-23
   343.4296  3.607759E-23
   343.5383  7.418377E-23
   343.6470  6.934329E-23
   343.7556  7.355489E-23
   343.8643  8.355091E-23
   343.9729  1.056737E-22
   344.0815  1.263369E-22
   344.1901  7.581386E-23
   344.2987  1.165688E-22
   344.4072  8.289215E-23
   344.5158  4.197284E-23
   344.6243  4.159800E-23
   344.7328  7.166203E-23
   344.8413  3.991436E-23
   344.9498  5.607835E-23
   345.0582  5.297506E-24
   345.1666  3.768900E-23
   345.2751  1.582652E-23
   345.3835 -4.057187E-24
   345.4919 -1.368585E-24
   345.6002  4.955422E-23
   345.7086  5.377579E-23
   345.8169  4.831764E-24
   345.9253  3.213123E-23
   346.0336  7.209166E-23
   346.1419  2.267318E-23
   346.2501  3.286222E-23
   346.3584 -1.899954E-23
   346.4666  2.026726E-23
   346.5749  5.645817E-23
   346.6831  7.115769E-23
   346.7913  6.274818E-23
   346.8995  8.260199E-23
   347.0076  7.626591E-23
   347.1158  1.296158E-22
   347.2239  7.909274E-23
   347.3320  5.755278E-23
   347.4401  1.128391E-22
   347.5482  4.523303E-23
   347.6563  2.543027E-23
   347.7644  5.471848E-23
   347.8724  3.542007E-23
   347.9805 -2.813506E-23
   348.0885  2.587609E-23
   348.1965 -1.707555E-23
   348.3045  6.928849E-24
   348.4124  5.358899E-23
   348.5204  8.563679E-23
   348.6283  8.180376E-24
   348.7363  4.544349E-23
   348.8442  4.730521E-23
   348.9521  3.994300E-23
   349.0599  5.348190E-23
   349.1678  1.139848E-22
   349.2757  7.179030E-23
   349.3835  1.150159E-22
   349.4913  9.487318E-23
   349.5992  1.044620E-22
   349.7070  7.392723E-23
   349.8147  1.935445E-23
   349.9225 -6.580165E-24
   350.0303  3.747979E-23
   350.1380  7.922474E-23
   350.2458  1.360739E-22
   350.3535  6.064486E-23
   350.4612  5.152304E-23
   350.5689  4.355437E-23
   350.6765  9.369388E-23
   350.7842  8.054102E-23
   350.8919  5.144957E-23
   350.9995  7.955848E-23
   351.1071  6.712042E-23
   351.2147  6.804942E-23
   351.3223  4.860157E-23
   351.4299  4.464027E-23
   351.5375  3.884962E-23
   351.6451  1.455009E-23
   351.7526  1.457624E-23
   351.8601  3.468410E-23
   351.9677  5.120425E-23
   352.0752  2.182637E-23
   352.1827  3.213248E-23
   352.2901  6.432224E-23
   352.3976  1.403204E-23
   352.5051  7.713513E-23
   352.6125  1.168104E-22
   352.7200  1.009365E-22
   352.8274  1.105291E-22
   352.9348  1.657494E-22
   353.0422  1.910315E-22
   353.1496  2.357378E-22
   353.2570  2.629040E-22
   353.3643  2.600211E-22
   353.4717  2.541533E-22
   353.5790  2.158528E-22
   353.6864  1.339831E-22
   353.7937  1.271314E-22
   353.9010  9.987431E-23
   354.0083  7.099331E-23
   354.1156  6.005957E-23
   354.2228  4.834504E-23
   354.3301  3.343257E-23
   354.4374  4.389060E-23
   354.5446  2.376406E-23
   354.6518  1.186646E-23
   354.7591  1.532964E-24
   354.8663 -4.429283E-23
   354.9735  4.479469E-23
   355.0806 -1.392868E-23
   355.1878 -1.041071E-23
   355.2950  1.540810E-23
   355.4021  1.857365E-23
   355.5093  9.458054E-24
   355.6164 -5.507962E-24
   355.7236  5.902722E-24
   355.8307  4.870493E-23
   355.9378  3.396929E-23
   356.0449  1.735076E-23
   356.1520  2.597696E-23
   356.2590  2.775276E-23
   356.3661  6.006082E-24
   356.4731 -3.374265E-23
   356.5802  1.377302E-23
   356.6872  1.925732E-23
   356.7943  3.553713E-23
   356.9013  3.762549E-23
   357.0083  2.602303E-23
   357.1153  5.459520E-23
   357.2223  6.895724E-23
   357.3292  8.693439E-23
   357.4362  1.142812E-22
   357.5432  1.080584E-22
   357.6501  1.430489E-22
   357.7571  1.770418E-22
   357.8640  1.851188E-22
   357.9709  2.850305E-22
   358.0778  2.594221E-22
   358.1848  2.150795E-22
   358.2917  1.882968E-22
   358.3985  1.657793E-22
   358.5054  1.668453E-22
   358.6123  1.583673E-22
   358.7192  1.261850E-22
   358.8260  1.521719E-22
   358.9329  1.861375E-22
   359.0397  1.755973E-22
   359.1465  2.195140E-22
   359.2534  2.130509E-22
   359.3602  2.297068E-22
   359.4670  2.780095E-22
   359.5738  2.364638E-22
   359.6806  2.223408E-22
   359.7874  1.774391E-22
   359.8942  2.011359E-22
   360.0009  1.329246E-22
   360.1077  1.068306E-22
   360.2144  8.493444E-23
   360.3212  5.856397E-23
   360.4279  4.689551E-23
   360.5347  7.751743E-23
   360.6414  1.301463E-22
   360.7481  9.350584E-23
   360.8548  4.221318E-23
   360.9615  6.188020E-23
   361.0682  1.101717E-23
   361.1749  3.080623E-23
   361.2816  6.423880E-23
   361.3883  3.925310E-23
   361.4950  4.282587E-23
   361.6016  8.896299E-23
   361.7083  7.898938E-23
   361.8149  6.555882E-23
   361.9216  4.043987E-23
   362.0282  6.070713E-23
   362.1348  1.230045E-22
   362.2415  1.063897E-22
   362.3481  1.211602E-22
   362.4547  1.284564E-22
   362.5613  1.356580E-22
   362.6679  1.226371E-22
   362.7745  1.853679E-22
   362.8811  1.946690E-22
   362.9877  2.346394E-22
   363.0943  2.576700E-22
   363.2008  2.540786E-22
   363.3074  3.511833E-22
   363.4140  3.160459E-22
   363.5205  2.640746E-22
   363.6271  3.177894E-22
   363.7336  2.800630E-22
   363.8402  2.025219E-22
   363.9467  1.788836E-22
   364.0532  1.708278E-22
   364.1597  1.203682E-22
   364.2663  8.307023E-23
   364.3728  9.164287E-23
   364.4793  7.649255E-23
   364.5858  7.627961E-23
   364.6923  9.549957E-23
   364.7988  8.339650E-23
   364.9053  8.386597E-23
   365.0118  8.876125E-23
   365.1183  1.514260E-22
   365.2247  1.885098E-22
   365.3312  2.183086E-22
   365.4377  1.950327E-22
   365.5441  1.823530E-22
   365.6506  1.890490E-22
   365.7571  2.496328E-22
   365.8635  2.380453E-22
   365.9700  1.618790E-22
   366.0764  1.798674E-22
   366.1828  1.759509E-22
   366.2893  1.470002E-22
   366.3957  8.409262E-23
   366.5021  1.106462E-22
   366.6086  8.706889E-23
   366.7150  4.565270E-23
   366.8214  8.444628E-23
   366.9278  1.127532E-22
   367.0342  1.073934E-22
   367.1406  5.036491E-23
   367.2470  4.989668E-23
   367.3534  5.622654E-23
   367.4598  7.973282E-23
   367.5662  5.491898E-23
   367.6726  6.373196E-23
   367.7790  6.994103E-23
   367.8854  8.998911E-23
   367.9918  7.161347E-23
   368.0982  9.891916E-23
   368.2045  9.908852E-23
   368.3109  1.020959E-22
   368.4173  6.367592E-23
   368.5236  9.907109E-23
   368.6300  1.134481E-22
   368.7364  1.027721E-22
   368.8427  1.298661E-22
   368.9491  1.509017E-22
   369.0554  2.022043E-22
   369.1618  1.599563E-22
   369.2681  1.223183E-22
   369.3745  1.735712E-22
   369.4808  2.113971E-22
   369.5872  2.387888E-22
   369.6935  2.703509E-22
   369.7999  3.114894E-22
   369.9062  3.419569E-22
   370.0125  3.963640E-22
   370.1189  5.363694E-22
   370.2252  6.238903E-22
   370.3315  5.555333E-22
   370.4379  4.521697E-22
   370.5442  4.394938E-22
   370.6505  3.460875E-22
   370.7569  2.710508E-22
   370.8632  1.910539E-22
   370.9695  1.575578E-22
   371.0758  1.286295E-22
   371.1821  1.580896E-22
   371.2885  1.667108E-22
   371.3948  1.630359E-22
   371.5011  2.207381E-22
   371.6074  1.130683E-22
   371.7137  6.855750E-23
   371.8200  9.747586E-23
   371.9263  1.066438E-22
   372.0326  1.025915E-22
   372.1390  9.266651E-23
   372.2453  7.977516E-23
   372.3516  1.138092E-22
   372.4579  1.257728E-22
   372.5642  1.397675E-22
   372.6705  9.159804E-23
   372.7768  1.286719E-22
   372.8831  1.093174E-22
   372.9894  1.362582E-22
   373.0957  1.408970E-22
   373.2020  1.242386E-22
   373.3083  1.331512E-22
   373.4146  1.353056E-22
   373.5209  1.124506E-22
   373.6272  9.716578E-23
   373.7335  1.453402E-22
   373.8398  1.628167E-22
   373.9461  9.774733E-23
   374.0524  1.241402E-22
   374.1587  1.485344E-22
   374.2650  1.922307E-22
   374.3713  1.951833E-22
   374.4776  2.089202E-22
   374.5839  2.543027E-22
   374.6902  2.661281E-22
   374.7965  3.015581E-22
   374.9028  3.641793E-22
   375.0091  3.659874E-22
   375.1154  3.908660E-22
   375.2217  4.280893E-22
   375.3280  3.835773E-22
   375.4343  3.120572E-22
   375.5406  2.462332E-22
   375.6469  2.218427E-22
   375.7532  1.362445E-22
   375.8595  1.867913E-22
   375.9659  1.588953E-22
   376.0722  1.170320E-22
   376.1785  1.670271E-22
   376.2848  1.837590E-22
   376.3911  1.047247E-22
   376.4974  1.243395E-22
   376.6037  1.588467E-22
   376.7100  1.571581E-22
   376.8163  1.136697E-22
   376.9226  1.802323E-22
   377.0290  1.634120E-22
   377.1353  1.863031E-22
   377.2416  1.591917E-22
   377.3479  2.127844E-22
   377.4542  2.027784E-22
   377.5605  2.364862E-22
   377.6669  2.238638E-22
   377.7732  2.540150E-22
   377.8795  2.313107E-22
   377.9858  2.178578E-22
   378.0922  1.626013E-22
   378.1985  1.578667E-22
   378.3048  1.318798E-22
   378.4112  1.650384E-22
   378.5175  1.320342E-22
   378.6238  1.406355E-22
   378.7302  1.383242E-22
   378.8365  1.324302E-22
   378.9428  1.611842E-22
   379.0492  1.411585E-22
   379.1555  1.081120E-22
   379.2619  9.466272E-23
   379.3682  7.471426E-23
   379.4746  1.155178E-22
   379.5809  1.245811E-22
   379.6872  1.631704E-22
   379.7936  1.528805E-22
   379.9000  1.091007E-22
   380.0063  1.349083E-22
   380.1127  1.246769E-22
   380.2190  1.548991E-22
   380.3254  1.113859E-22
   380.4318  1.729859E-22
   380.5381  1.247865E-22
   380.6445  1.354936E-22
   380.7509  1.635029E-22
   380.8572  1.289508E-22
   380.9636  1.671840E-22
   381.0700  1.370851E-22
   381.1764  1.376617E-22
   381.2827  1.173023E-22
   381.3891  1.407139E-22
   381.4955  1.469006E-22
   381.6019  1.951373E-22
   381.7083  1.543275E-22
   381.8147  1.576762E-22
   381.9211  1.992106E-22
   382.0275  1.689374E-22
   382.1339  2.213583E-22
   382.2403  2.575779E-22
   382.3467  2.810704E-22
   382.4531  2.993240E-22
   382.5595  3.426169E-22
   382.6659  3.771404E-22
   382.7723  3.444649E-22
   382.8787  4.216735E-22
   382.9851  4.507401E-22
   383.0916  4.654047E-22
   383.1980  3.683236E-22
   383.3044  2.629314E-22
   383.4108  2.447911E-22
   383.5173  2.286196E-22
   383.6237  2.063861E-22
   383.7301  1.697917E-22
   383.8366  1.582403E-22
   383.9430  1.539091E-22
   384.0495  1.273406E-22
   384.1559  1.594370E-22
   384.2623  1.277977E-22
   384.3688  1.415259E-22
   384.4753  1.351823E-22
   384.5817  1.185426E-22
   384.6882  9.133155E-23
   384.7946  1.799234E-22
   384.9011  1.608243E-22
   385.0076  1.432668E-22
   385.1140  1.495929E-22
   385.2205  1.442157E-22
   385.3270  1.663621E-22
   385.4334  2.208677E-22
   385.5399  1.524322E-22
   385.6464  1.211378E-22
   385.7529  1.130321E-22
   385.8594  1.793381E-22
   385.9659  2.123050E-22
   386.0724  1.664306E-22
   386.1789  1.023525E-22
   386.2854  1.538058E-22
   386.3919  1.278276E-22
   386.4984  1.972543E-22
   386.6049  1.646760E-22
   386.7114  1.630521E-22
   386.8179  1.354961E-22
   386.9244  1.670221E-22
   387.0309  1.669686E-22
   387.1374  1.820168E-22
   387.2440  1.802086E-22
   387.3505  2.108143E-22
   387.4570  2.122203E-22
   387.5636  2.225401E-22
   387.6701  2.280007E-22
   387.7766  2.691679E-22
   387.8832  2.342484E-22
   387.9897  3.191355E-22
   388.0963  3.326570E-22
   388.2028  3.503266E-22
   388.3093  3.822946E-22
   388.4159  3.708005E-22
   388.5225  3.136761E-22
   388.6290  2.890889E-22
   388.7356  2.556053E-22
   388.8421  2.695365E-22
   388.9487  2.807765E-22
   389.0553  2.844714E-22
   389.1618  2.076002E-22
   389.2684  1.999777E-22
   389.3750  1.703135E-22
   389.4816  1.258911E-22
   389.5882  1.265536E-22
   389.6947  1.156647E-22
   389.8013  1.491919E-22
   389.9079  1.576027E-22
   390.0145  1.322309E-22
   390.1211  1.387401E-22
   390.2277  1.596724E-22
   390.3343  1.003288E-22
   390.4409  1.871985E-22
   390.5475  1.769920E-22
   390.6541  1.509316E-22
   390.7607  1.351076E-22
   390.8673  1.610347E-22
   390.9739  1.238077E-22
   391.0805  1.839931E-22
   391.1872  1.595204E-22
   391.2938  1.266233E-22
   391.4004  2.052640E-22
   391.5070  1.138789E-22
   391.6136  1.436478E-22
   391.7203  1.513077E-22
   391.8269  1.606263E-22
   391.9335  1.421136E-22
   392.0402  1.867116E-22
   392.1468  2.206547E-22
   392.2534  2.152352E-22
   392.3601  2.299036E-22
   392.4667  1.713670E-22
   392.5734  1.880378E-22
   392.6800  2.497200E-22
   392.7867  2.738838E-22
   392.8933  2.679549E-22
   393.0000  2.057472E-22
   393.1066  2.514298E-22
   393.2133  1.884662E-22
   393.3199  2.072142E-22
   393.4266  2.074172E-22
   393.5333  1.893005E-22
   393.6399  2.197257E-22
   393.7466  1.477835E-22
   393.8532  1.869693E-22
   393.9599  2.176959E-22
   394.0666  1.888684E-22
   394.1732  2.313929E-22
   394.2799  1.917637E-22
   394.3866  2.240780E-22
   394.4933  2.233794E-22
   394.5999  1.973514E-22
   394.7066  2.944948E-22
   394.8133  2.389569E-22
   394.9200  1.554109E-22
   395.0267  2.358910E-22
